20ms
0ms
4X
1
Counts
12/1/2022 9:46:35 PM
100.00000000
0.00000000
Resolution=0&-1
Time1=20ms:Average1=100:Objective=4X:Aperture=1: (12/1/2022 9:46:35 PM)
350.27729971	350.71898553	351.16066216	351.60232959	352.04398778	352.48563672	352.92727640	353.36890678	353.81052784	354.25213958	354.69374196	355.13533496	355.57691857	356.01849276	356.46005751	356.90161280	357.34315861	357.78469491	358.22622170	358.66773894	359.10924662	359.55074471	359.99223319	360.43371205	360.87518126	361.31664080	361.75809064	362.19953078	362.64096119	363.08238184	363.52379271	363.96519379	364.40658506	364.84796649	365.28933806	365.73069974	366.17205153	366.61339340	367.05472533	367.49604729	367.93735927	368.37866124	368.81995319	369.26123509	369.70250692	370.14376867	370.58502030	371.02626180	371.46749315	371.90871433	372.34992531	372.79112608	373.23231661	373.67349688	374.11466688	374.55582658	374.99697596	375.43811500	375.87924367	376.32036196	376.76146985	377.20256732	377.64365434	378.08473089	378.52579695	378.96685251	379.40789754	379.84893201	380.28995592	380.73096923	381.17197193	381.61296399	382.05394540	382.49491613	382.93587616	383.37682548	383.81776406	384.25869187	384.69960891	385.14051514	385.58141055	386.02229511	386.46316881	386.90403163	387.34488353	387.78572451	388.22655454	388.66737360	389.10818167	389.54897872	389.98976475	390.43053971	390.87130361	391.31205640	391.75279809	392.19352863	392.63424801	393.07495621	393.51565322	393.95633900	394.39701354	394.83767681	395.27832880	395.71896948	396.15959884	396.60021685	397.04082349	397.48141874	397.92200258	398.36257499	398.80313595	399.24368543	399.68422342	400.12474989	400.56526482	401.00576820	401.44626000	401.88674020	402.32720878	402.76766572	403.20811100	403.64854459	404.08896648	404.52937664	404.96977506	405.41016171	405.85053657	406.29089962	406.73125084	407.17159021	407.61191771	408.05223331	408.49253700	408.93282876	409.37310856	409.81337638	410.25363221	410.69387601	411.13410778	411.57432748	412.01453511	412.45473063	412.89491402	413.33508527	413.77524436	414.21539126	414.65552595	415.09564841	415.53575862	415.97585656	416.41594221	416.85601555	417.29607655	417.73612520	418.17616148	418.61618535	419.05619681	419.49619583	419.93618239	420.37615647	420.81611805	421.25606711	421.69600362	422.13592757	422.57583893	423.01573769	423.45562382	423.89549730	424.33535811	424.77520623	425.21504164	425.65486432	426.09467425	426.53447140	426.97425575	427.41402729	427.85378599	428.29353184	428.73326480	429.17298487	429.61269201	430.05238621	430.49206745	430.93173570	431.37139095	431.81103318	432.25066236	432.69027846	433.12988148	433.56947140	434.00904817	434.44861180	434.88816226	435.32769952	435.76722357	436.20673438	436.64623193	437.08571621	437.52518718	437.96464484	438.40408916	438.84352012	439.28293769	439.72234186	440.16173261	440.60110991	441.04047374	441.47982409	441.91916092	442.35848423	442.79779399	443.23709018	443.67637277	444.11564175	444.55489710	444.99413879	445.43336681	445.87258112	446.31178172	446.75096859	447.19014169	447.62930101	448.06844652	448.50757822	448.94669607	449.38580005	449.82489015	450.26396634	450.70302861	451.14207692	451.58111127	452.02013162	452.45913797	452.89813028	453.33710853	453.77607271	454.21502280	454.65395877	455.09288060	455.53178827	455.97068177	456.40956106	456.84842613	457.28727696	457.72611352	458.16493580	458.60374377	459.04253742	459.48131672	459.92008165	460.35883219	460.79756833	461.23629003	461.67499727	462.11369005	462.55236833	462.99103209	463.42968132	463.86831599	464.30693609	464.74554158	465.18413245	465.62270869	466.06127026	466.49981714	466.93834933	467.37686678	467.81536949	468.25385744	468.69233060	469.13078894	469.56923246	470.00766113	470.44607492	470.88447382	471.32285781	471.76122687	472.19958096	472.63792008	473.07624421	473.51455331	473.95284737	474.39112638	474.82939030	475.26763912	475.70587281	476.14409136	476.58229475	477.02048295	477.45865594	477.89681370	478.33495621	478.77308345	479.21119540	479.64929204	480.08737335	480.52543930	480.96348987	481.40152505	481.83954481	482.27754913	482.71553800	483.15351138	483.59146926	484.02941162	484.46733844	484.90524969	485.34314536	485.78102542	486.21888985	486.65673864	487.09457175	487.53238918	487.97019090	488.40797688	488.84574711	489.28350157	489.72124023	490.15896307	490.59667008	491.03436123	491.47203651	491.90969588	492.34733933	492.78496684	493.22257839	493.66017395	494.09775351	494.53531704	494.97286453	495.41039594	495.84791127	496.28541049	496.72289358	497.16036052	497.59781129	498.03524586	498.47266422	498.91006634	499.34745220	499.78482179	500.22217508	500.65951205	501.09683268	501.53413695	501.97142484	502.40869632	502.84595138	503.28318999	503.72041214	504.15761780	504.59480695	505.03197957	505.46913564	505.90627514	506.34339805	506.78050435	507.21759401	507.65466702	508.09172335	508.52876298	508.96578590	509.40279208	509.83978149	510.27675413	510.71370997	511.15064898	511.58757115	512.02447645	512.46136487	512.89823638	513.33509096	513.77192859	514.20874926	514.64555293	515.08233959	515.51910922	515.95586180	516.39259730	516.82931571	517.26601699	517.70270115	518.13936814	518.57601795	519.01265057	519.44926596	519.88586411	520.32244499	520.75900860	521.19555489	521.63208386	522.06859549	522.50508974	522.94156661	523.37802606	523.81446808	524.25089266	524.68729975	525.12368936	525.56006145	525.99641600	526.43275300	526.86907242	527.30537424	527.74165844	528.17792499	528.61417389	529.05040510	529.48661861	529.92281440	530.35899244	530.79515271	531.23129519	531.66741987	532.10352671	532.53961571	532.97568683	533.41174006	533.84777538	534.28379276	534.71979219	535.15577364	535.59173709	536.02768252	536.46360992	536.89951925	537.33541050	537.77128365	538.20713868	538.64297556	539.07879428	539.51459481	539.95037713	540.38614123	540.82188707	541.25761465	541.69332393	542.12901490	542.56468754	543.00034182	543.43597773	543.87159524	544.30719434	544.74277500	545.17833719	545.61388091	546.04940613	546.48491283	546.92040098	547.35587057	547.79132157	548.22675397	548.66216774	549.09756286	549.53293931	549.96829708	550.40363613	550.83895645	551.27425802	551.70954081	552.14480481	552.58005000	553.01527634	553.45048383	553.88567245	554.32084216	554.75599295	555.19112480	555.62623768	556.06133159	556.49640649	556.93146236	557.36649919	557.80151695	558.23651562	558.67149518	559.10645561	559.54139689	559.97631900	560.41122191	560.84610561	561.28097008	561.71581529	562.15064122	562.58544785	563.02023517	563.45500314	563.88975175	564.32448098	564.75919081	565.19388122	565.62855217	566.06320367	566.49783567	566.93244817	567.36704114	567.80161456	568.23616841	568.67070266	569.10521730	569.53971231	569.97418767	570.40864335	570.84307933	571.27749559	571.71189212	572.14626889	572.58062587	573.01496305	573.44928042	573.88357793	574.31785559	574.75211335	575.18635121	575.62056915	576.05476713	576.48894515	576.92310317	577.35724118	577.79135917	578.22545709	578.65953495	579.09359270	579.52763035	579.96164785	580.39564520	580.82962236	581.26357933	581.69751608	582.13143258	582.56532882	582.99920478	583.43306043	583.86689575	584.30071073	584.73450534	585.16827956	585.60203337	586.03576675	586.46947968	586.90317213	587.33684409	587.77049554	588.20412645	588.63773680	589.07132658	589.50489576	589.93844431	590.37197223	590.80547948	591.23896606	591.67243193	592.10587707	592.53930147	592.97270510	593.40608794	593.83944998	594.27279118	594.70611154	595.13941102	595.57268961	596.00594729	596.43918403	596.87239982	597.30559463	597.73876845	598.17192124	598.60505300	599.03816370	599.47125331	599.90432182	600.33736921	600.77039546	601.20340054	601.63638443	602.06934712	602.50228858	602.93520879	603.36810773	603.80098538	604.23384171	604.66667672	605.09949037	605.53228264	605.96505352	606.39780298	606.83053101	607.26323757	607.69592266	608.12858624	608.56122830	608.99384882	609.42644778	609.85902515	610.29158092	610.72411506	611.15662755	611.58911837	612.02158750	612.45403492	612.88646062	613.31886455	613.75124672	614.18360709	614.61594564	615.04826236	615.48055722	615.91283021	616.34508129	616.77731045	617.20951767	617.64170293	618.07386621	618.50600748	618.93812673	619.37022393	619.80229906	620.23435210	620.66638304	621.09839184	621.53037850	621.96234298	622.39428527	622.82620535	623.25810319	623.68997877	624.12183208	624.55366309	624.98547178	625.41725813	625.84902212	626.28076372	626.71248293	627.14417971	627.57585404	628.00750591	628.43913530	628.87074217	629.30232652	629.73388832	630.16542754	630.59694418	631.02843820	631.45990959	631.89135832	632.32278438	632.75418775	633.18556839	633.61692630	634.04826144	634.47957381	634.91086337	635.34213012	635.77337401	636.20459505	636.63579320	637.06696844	637.49812076	637.92925013	638.36035652	638.79143993	639.22250033	639.65353769	640.08455200	640.51554324	640.94651138	641.37745641	641.80837830	642.23927703	642.67015258	643.10100493	643.53183407	643.96263996	644.39342258	644.82418192	645.25491796	645.68563067	646.11632004	646.54698603	646.97762864	647.40824784	647.83884361	648.26941593	648.69996477	649.13049012	649.56099195	649.99147025	650.42192500	650.85235616	651.28276373	651.71314767	652.14350798	652.57384463	653.00415759	653.43444685	653.86471238	654.29495417	654.72517219	655.15536643	655.58553686	656.01568345	656.44580620	656.87590508	657.30598006	657.73603113	658.16605827	658.59606145	659.02604066	659.45599587	659.88592706	660.31583421	660.74571730	661.17557631	661.60541121	662.03522200	662.46500864	662.89477112	663.32450941	663.75422349	664.18391334	664.61357895	665.04322029	665.47283733	665.90243007	666.33199847	666.76154252	667.19106219	667.62055747	668.05002833	668.47947475	668.90889671	669.33829420	669.76766718	670.19701564	670.62633956	671.05563892	671.48491369	671.91416386	672.34338940	672.77259029	673.20176651	673.63091805	674.06004487	674.48914696	674.91822430	675.34727687	675.77630464	676.20530760	676.63428572	677.06323899	677.49216737	677.92107086	678.34994943	678.77880305	679.20763171	679.63643539	680.06521407	680.49396772	680.92269633	681.35139987	681.78007832	682.20873166	682.63735987	683.06596293	683.49454082	683.92309351	684.35162100	684.78012324	685.20860023	685.63705195	686.06547837	686.49387946	686.92225522	687.35060562	687.77893064	688.20723025	688.63550444	689.06375319	689.49197647	689.92017426	690.34834654	690.77649330	691.20461451	691.63271015	692.06078019	692.48882463	692.91684343	693.34483657	693.77280404	694.20074582	694.62866187	695.05655219	695.48441675	695.91225553	696.34006851	696.76785567	697.19561698	697.62335243	698.05106199	698.47874565	698.90640338	699.33403516	699.76164097	700.18922080	700.61677461	701.04430239	701.47180412	701.89927977	702.32672933	702.75415277	703.18155008	703.60892123	704.03626620	704.46358497	704.89087751	705.31814382	705.74538387	706.17259763	706.59978508	707.02694621	707.45408100	707.88118941	708.30827144	708.73532706	709.16235625	709.58935898	710.01633525	710.44328502	710.87020827	711.29710499	711.72397516	712.15081874	712.57763573	713.00442610	713.43118983	713.85792690	714.28463728	714.71132096	715.13797792	715.56460814	715.99121158	716.41778824	716.84433809	717.27086111	717.69735729	718.12382659	718.55026900	718.97668449	719.40307305	719.82943466	720.25576929	720.68207693	721.10835754	721.53461112	721.96083764	722.38703707	722.81320941	723.23935462	723.66547269	724.09156359	724.51762731	724.94366382	725.36967311	725.79565514	726.22160991	726.64753738	727.07343755	727.49931038	727.92515585	728.35097396	728.77676466	729.20252795	729.62826381	730.05397220	730.47965312	730.90530653	731.33093243	731.75653078	732.18210157	732.60764477	733.03316037	733.45864834	733.88410867	734.30954132	734.73494629	735.16032355	735.58567308	736.01099485	736.43628885	736.86155506	737.28679345	737.71200401	738.13718671	738.56234153	738.98746845	739.41256745	739.83763852	740.26268162	740.68769673	741.11268385	741.53764293	741.96257398	742.38747695	742.81235184	743.23719862	743.66201727	744.08680777	744.51157009	744.93630423	745.36101015	745.78568784	746.21033727	746.63495842	747.05955128	747.48411582	747.90865202	748.33315985	748.75763931	749.18209037	749.60651300	750.03090718	750.45527291	750.87961014	751.30391887	751.72819907	752.15245072	752.57667380	753.00086829	753.42503417	753.84917141	754.27328000	754.69735991	755.12141113	755.54543363	755.96942740	756.39339240	756.81732862	757.24123605	757.66511465	758.08896441	758.51278530	758.93657731	759.36034042	759.78407459	760.20777982	760.63145608	761.05510335	761.47872161	761.90231084	762.32587102	762.74940212	763.17290413	763.59637702	764.01982077	764.44323537	764.86662079	765.28997701	765.71330401	766.13660176	766.55987026	766.98310947	767.40631938	767.82949996	768.25265119	768.67577306	769.09886554	769.52192861	769.94496225	770.36796644	770.79094115	771.21388638	771.63680209	772.05968826	772.48254488	772.90537192	773.32816936	773.75093718	774.17367536	774.59638389	775.01906273	775.44171186	775.86433128	776.28692094	776.70948085	777.13201096	777.55451127	777.97698175	778.39942238	778.82183313	779.24421400	779.66656495	780.08888597	780.51117704	780.93343813	781.35566922	781.77787029	782.20004133	782.62218231	783.04429320	783.46637400	783.88842467	784.31044520	784.73243556	785.15439574	785.57632571	785.99822545	786.42009495	786.84193418	787.26374311	787.68552174	788.10727003	788.52898797	788.95067553	789.37233270	789.79395946	790.21555577	790.63712163	791.05865701	791.48016189	791.90163624	792.32308006	792.74449331	793.16587598	793.58722804	794.00854948	794.42984027	794.85110039	795.27232983	795.69352855	796.11469654	796.53583378	796.95694025	797.37801592	797.79906078	798.22007481	798.64105797	799.06201026	799.48293165	799.90382212
759.34000000	762.12000000	764.17000000	763.94000000	770.01000000	770.31000000	773.67000000	778.58000000	785.43000000	788.78000000	798.24000000	805.01000000	814.30000000	824.71000000	836.34000000	849.71000000	862.82000000	877.59000000	896.53000000	915.52000000	939.29000000	962.54000000	989.08000000	1019.61000000	1045.99000000	1081.22000000	1113.89000000	1150.67000000	1191.41000000	1234.38000000	1280.47000000	1323.41000000	1373.36000000	1422.89000000	1481.24000000	1537.29000000	1592.81000000	1661.09000000	1729.03000000	1797.83000000	1867.18000000	1942.31000000	2023.82000000	2109.26000000	2192.45000000	2282.65000000	2374.90000000	2469.36000000	2568.10000000	2678.22000000	2779.64000000	2893.94000000	3008.09000000	3125.16000000	3255.49000000	3377.07000000	3509.56000000	3637.95000000	3777.31000000	3922.83000000	4074.98000000	4233.68000000	4383.33000000	4547.80000000	4711.26000000	4887.33000000	5057.08000000	5230.46000000	5393.66000000	5561.06000000	5735.88000000	5920.83000000	6111.09000000	6293.49000000	6474.80000000	6673.65000000	6878.45000000	7074.71000000	7282.91000000	7485.98000000	7698.95000000	7901.87000000	8141.81000000	8374.07000000	8606.45000000	8848.26000000	9113.49000000	9366.82000000	9636.70000000	9904.16000000	10176.40000000	10445.10000000	10710.16000000	10986.45000000	11275.13000000	11561.49000000	11867.51000000	12168.39000000	12508.49000000	12834.32000000	13185.68000000	13534.07000000	13893.24000000	14271.44000000	14614.94000000	14912.67000000	15173.03000000	15403.47000000	15603.49000000	15762.41000000	15877.07000000	15990.32000000	16119.75000000	16243.06000000	16368.84000000	16555.19000000	16736.57000000	16903.50000000	17052.56000000	17248.82000000	17493.11000000	17743.76000000	17958.62000000	18175.24000000	18420.87000000	18651.27000000	18926.85000000	19184.47000000	19430.49000000	19677.88000000	19927.35000000	20186.52000000	20430.41000000	20663.97000000	20903.86000000	21164.82000000	21440.23000000	21711.85000000	22011.77000000	22262.96000000	22473.54000000	22645.96000000	22795.18000000	22927.56000000	23044.85000000	23175.09000000	23283.82000000	23397.91000000	23511.95000000	23705.12000000	23927.17000000	24186.89000000	24479.07000000	24881.51000000	25310.13000000	25698.35000000	25999.62000000	26198.96000000	26250.37000000	26262.80000000	26231.12000000	26157.91000000	26106.02000000	26109.99000000	26132.25000000	26225.83000000	26314.79000000	26431.58000000	26555.52000000	26722.38000000	26829.41000000	26918.59000000	26878.03000000	26796.38000000	26694.46000000	26670.81000000	26693.93000000	26729.83000000	26816.89000000	26895.27000000	26997.78000000	27175.73000000	27373.34000000	27582.16000000	27783.79000000	27992.82000000	28146.18000000	28264.30000000	28380.45000000	28499.13000000	28617.28000000	28769.95000000	28902.36000000	29054.23000000	29269.56000000	29540.54000000	29871.80000000	30231.48000000	30522.43000000	30723.47000000	30769.48000000	30738.42000000	30653.71000000	30528.20000000	30463.16000000	30437.46000000	30485.01000000	30544.18000000	30594.90000000	30599.06000000	30616.52000000	30588.23000000	30610.93000000	30594.53000000	30623.90000000	30620.55000000	30687.05000000	30801.01000000	30923.50000000	31086.05000000	31325.55000000	31817.28000000	32676.04000000	33765.59000000	34878.35000000	35818.75000000	36365.42000000	36493.54000000	36281.97000000	35948.90000000	35558.05000000	35210.14000000	34818.64000000	34379.96000000	34023.79500000	33667.63000000	33501.73000000	33559.70000000	33827.64000000	34252.68000000	34758.34000000	35293.24000000	35781.47000000	36177.44000000	36454.52000000	36583.88000000	36576.06000000	36566.79000000	36734.16000000	37156.43000000	37944.41000000	38985.44000000	40180.41000000	41308.01000000	42194.32000000	42715.69000000	42701.61000000	42335.41000000	41830.40000000	41415.82000000	41543.65000000	42461.14000000	44166.30000000	46532.67000000	49024.30000000	51119.74000000	52278.47000000	52411.28000000	51489.73000000	49910.88000000	48017.36000000	46231.91000000	44601.78000000	43399.24000000	42709.43000000	42647.41000000	43007.52000000	43675.80000000	44250.90000000	44411.32000000	43795.48000000	42558.94000000	41083.77000000	39654.96000000	38520.21000000	37785.67000000	37296.98000000	36977.30000000	36787.11000000	36837.11000000	37036.23000000	37503.58000000	38213.87000000	39190.53000000	40279.18000000	41332.61000000	42224.18000000	42746.69000000	42931.99000000	42894.23000000	42689.41000000	42381.04000000	42029.52000000	41585.56000000	41024.95000000	40377.25000000	39691.66000000	39131.55000000	38646.60000000	38269.74000000	38009.43000000	37823.29000000	37748.39000000	37690.54000000	37687.15000000	37813.16000000	38091.24000000	38666.31000000	39506.16000000	40567.94000000	41615.52000000	42496.28000000	43000.74000000	43021.40000000	42651.55000000	41944.14000000	41117.42000000	40260.68000000	39469.64000000	38840.71000000	38381.51000000	38113.33000000	37880.99000000	37684.89000000	37564.69000000	37478.59000000	37487.06000000	37541.94000000	37583.91000000	37642.00000000	37725.45000000	37814.78000000	37912.58000000	37969.86000000	38061.56000000	38137.80000000	38175.56000000	38207.70000000	38206.26000000	38194.31000000	38165.72000000	38143.89000000	38084.94000000	37982.28000000	37955.87000000	37953.12000000	37912.88000000	37908.27000000	37885.22000000	37921.94000000	37966.51000000	37983.43000000	38020.96000000	37962.76000000	37936.73000000	37889.60000000	37888.64000000	37933.89000000	37985.48000000	38106.30000000	38231.25000000	38332.62000000	38344.84000000	38347.03000000	38309.16000000	38283.43000000	38310.31000000	38336.74000000	38351.33000000	38380.52000000	38387.35000000	38429.51000000	38446.53000000	38529.78000000	38552.76000000	38590.27000000	38641.78000000	38681.91000000	38709.37000000	38744.10000000	38752.51000000	38706.39000000	38689.66000000	38626.09000000	38542.71000000	38447.26000000	38358.92000000	38316.33000000	38301.17000000	38354.82000000	38436.00000000	38556.40000000	38682.31000000	38805.84000000	38836.84000000	38842.66000000	38789.42000000	38688.18000000	38586.94000000	38526.69000000	38508.98000000	38566.95000000	38648.23000000	38736.26000000	38836.27000000	38928.45000000	39054.13000000	39134.86000000	39138.34000000	39136.95000000	39147.02000000	39161.58000000	39207.70000000	39255.50000000	39269.92000000	39254.30000000	39179.35000000	39167.63000000	39173.78000000	39219.83000000	39368.17000000	39452.39000000	39570.79000000	39627.90000000	39660.41000000	39648.40000000	39651.55000000	39641.14000000	39661.49000000	39700.11000000	39802.76000000	39865.51000000	39935.64000000	39952.84000000	39939.79000000	39913.32000000	39908.28000000	39931.24000000	39965.26000000	39973.31000000	39947.76000000	39932.27000000	39891.84000000	39909.36000000	39857.64000000	39841.72000000	39809.21000000	39781.73000000	39817.51000000	39845.86000000	39909.65000000	39935.27000000	39980.25000000	40013.96000000	40012.77000000	40064.22000000	40108.61000000	40156.92000000	40249.59000000	40276.93000000	40327.19000000	40300.86000000	40287.16000000	40305.32000000	40312.77000000	40308.69000000	40329.17000000	40394.14000000	40452.05000000	40555.76000000	40629.21000000	40668.24000000	40610.55000000	40544.82000000	40464.20000000	40442.99000000	40448.32000000	40493.78000000	40604.36000000	40717.51000000	40813.95000000	40810.49000000	40828.83000000	40823.62000000	40791.42000000	40786.60000000	40784.88000000	40796.09000000	40801.69000000	40794.37000000	40778.41000000	40813.58000000	40844.39000000	40798.15000000	40764.12000000	40780.41000000	40756.16000000	40770.01000000	40794.60000000	40801.32000000	40784.15000000	40816.72000000	40823.37000000	40848.35000000	40877.73000000	40890.69000000	40904.36000000	40890.99000000	40881.39000000	40911.08000000	40898.24000000	40928.81000000	40946.93000000	41014.28000000	41062.71000000	41117.02000000	41201.25000000	41273.49000000	41266.32000000	41204.07000000	41168.20000000	41197.47000000	41243.51000000	41352.89000000	41439.89000000	41501.47000000	41540.77000000	41572.35000000	41520.41000000	41487.80000000	41496.35000000	41545.42000000	41625.88000000	41704.25000000	41747.42000000	41740.60000000	41665.47000000	41555.30000000	41497.72000000	41428.40000000	41374.34000000	41328.11000000	41245.44000000	41145.87000000	41003.31000000	40881.67000000	40713.50000000	40557.22000000	40464.48000000	40383.47000000	40364.93000000	40337.61000000	40293.83000000	40226.08000000	40103.71000000	40016.28000000	39946.02000000	39834.80000000	39700.40000000	39572.40000000	39447.57000000	39366.42000000	39348.98000000	39346.41000000	39358.80000000	39407.23000000	39422.39000000	39410.24000000	39432.37000000	39372.67000000	39270.72000000	39173.21000000	39054.14000000	39014.63000000	38980.35000000	39007.69000000	39076.02000000	39147.61000000	39217.08000000	39251.12000000	39324.49000000	39338.21000000	39353.63000000	39372.90000000	39443.27000000	39517.53000000	39644.43000000	39724.87000000	39820.83000000	39825.17000000	39801.22000000	39825.73000000	39878.12000000	40004.10000000	40121.17000000	40305.09000000	40483.12000000	40621.50000000	40718.50000000	40781.01000000	40824.75000000	40877.28000000	40910.46000000	40962.29000000	41098.21000000	41216.01000000	41385.15000000	41500.36000000	41576.49000000	41575.63000000	41508.04000000	41405.20000000	41299.78000000	41137.40000000	41013.70000000	40861.77000000	40727.57000000	40599.09000000	40443.98000000	40315.16000000	40171.86000000	40104.30000000	39993.12000000	39960.97000000	39922.18000000	39894.99000000	39894.93000000	39859.06000000	39880.88000000	39896.85000000	39900.44000000	39885.97000000	39859.71000000	39817.20000000	39788.39000000	39781.59000000	39740.96000000	39671.63000000	39570.30000000	39452.55000000	39274.15000000	39148.61000000	38964.79000000	38798.31000000	38674.96000000	38586.55000000	38495.38000000	38421.60000000	38318.77000000	38221.37000000	38080.07000000	37942.12000000	37810.22000000	37722.51000000	37635.99000000	37575.09000000	37524.60000000	37487.42000000	37455.08000000	37452.44000000	37410.07000000	37443.00000000	37463.86000000	37555.25000000	37718.07000000	37914.42000000	38189.86000000	38488.68000000	38834.78000000	39189.09000000	39505.61000000	39777.85000000	39962.70000000	40025.73000000	39935.19000000	39798.77000000	39537.66000000	39250.69000000	38882.86000000	38521.87000000	38131.38000000	37790.53000000	37479.15000000	37251.57000000	37061.17000000	36934.28000000	36840.74000000	36794.36000000	36769.39000000	36735.22000000	36706.96000000	36633.47000000	36560.80000000	36519.60000000	36460.73000000	36473.99000000	36504.81000000	36535.67000000	36586.22000000	36682.78000000	36723.49000000	36761.96000000	36766.77000000	36746.61000000	36748.35000000	36750.06000000	36731.24000000	36706.14000000	36678.55000000	36679.90000000	36682.27000000	36738.65000000	36787.69000000	36879.57000000	36925.72000000	36959.31000000	36978.29000000	36968.51000000	36925.47000000	36887.00000000	36837.99000000	36773.46000000	36748.08000000	36730.67000000	36738.25000000	36734.75000000	36777.70000000	36850.27000000	36897.08000000	36927.75000000	36960.75000000	36929.66000000	36912.26000000	36866.08000000	36820.99000000	36708.00000000	36579.87000000	36415.16000000	36229.74000000	36039.19000000	35870.53000000	35708.74000000	35607.28500000	35505.83000000	35464.94000000	35517.13000000	35635.83000000	35862.72000000	36209.60000000	36687.74000000	37213.52000000	37793.73000000	38303.98000000	38706.66000000	38990.52000000	39072.88000000	39003.94000000	38884.66000000	38724.13000000	38617.78000000	38614.28000000	38714.52000000	38941.75000000	39253.16000000	39579.90000000	39879.59000000	40053.38000000	40111.48000000	39912.33000000	39558.04000000	39012.42000000	38418.41000000	37716.22000000	37041.55000000	36331.67000000	35705.55000000	35069.18000000	34456.78000000	33887.34000000	33355.78000000	32903.26000000	32511.57000000	32173.43000000	31932.18000000	31696.71000000	31531.52000000	31391.28000000	31262.75000000	31114.81000000	30987.05000000	30796.08000000	30636.12000000	30414.53000000	30180.57000000	29932.49000000	29667.66000000	29428.69000000	29165.06000000	28945.04000000	28713.72000000	28517.97000000	28366.18000000	28262.31000000	28193.77000000	28187.47000000	28243.38000000	28368.98000000	28487.86000000	28632.20000000	28821.70000000	29007.31000000	29273.71000000	29583.29000000	29956.78000000	30401.87000000	30930.04000000	31494.23000000	32086.77000000	32683.08000000	33228.56000000	33653.86000000	33960.00000000	34075.90000000	34035.42000000	33831.34000000	33476.79000000	32996.98000000	32441.50000000	31846.98000000	31214.71000000	30553.99000000	29945.98000000	29385.06000000	28892.23000000	28441.61000000	28039.89000000	27705.64000000	27358.15000000	27062.28000000	26766.65000000	26475.69000000	26197.69000000	25967.06000000	25763.12000000	25612.21000000	25529.31000000	25501.48000000	25512.66000000	25532.18000000	25634.74000000	25758.65000000	25896.00000000	26057.35000000	26290.47000000	26567.06000000	26854.29000000	27193.57000000	27548.27000000	27890.00000000	28189.32000000	28507.17000000	28741.24000000	28970.88000000	29186.11000000	29421.98000000	29662.45000000	29933.19000000	30189.93000000	30429.62000000	30572.82000000	30570.30000000	30334.88000000	29923.90000000	29320.29000000	28613.70000000	27842.20000000	27059.49000000	26359.06000000	25805.78000000	25464.36000000	25309.01000000	25395.43000000	25596.43000000	25910.18000000	26284.20000000	26643.86000000	26942.13000000	27163.87000000	27254.38000000	27245.37000000	27085.96000000	26852.65000000	26527.06000000	26115.95000000	25678.99000000	25231.81000000	24770.38000000	24336.67000000	23928.01000000	23528.85000000	23168.45000000	22845.97000000	22587.61000000	22421.14000000	22348.77000000	22332.70000000	22361.75000000	22426.36000000	22464.58000000	22500.10000000	22493.06000000	22486.22000000	22413.14000000	22340.07000000	22263.37000000	22182.55000000	22086.16000000	22015.25000000	21880.34000000	21726.53000000	21611.34000000	21459.84000000	21321.64000000	21221.51000000	21107.69000000	21053.73000000	21043.91000000	21084.93000000	21187.49000000	21320.86000000	21439.60000000	21596.93000000	21795.92000000	22047.05000000	22395.51000000	22800.11000000	23266.69000000	23890.09000000	24892.14000000	26411.70000000	28396.97000000	30482.81000000	32269.61000000	33699.78000000	34626.90000000	34731.79000000	34050.18000000	32560.56000000	30439.06000000	27936.00000000	25525.19000000	23455.05000000	21812.20000000	20510.31000000	19511.38000000	18733.30000000	18101.55000000	17597.31000000	17186.53000000	16832.31000000	16527.72000000	16243.31000000	16004.52000000	15773.90000000	15537.68000000	15313.13000000	15090.34000000	14886.12000000	14681.34000000	14492.96000000	14311.27000000	14129.10000000	13971.23000000	13823.61000000	13684.99000000	13556.16000000	13439.67000000	13351.77000000	13289.80000000	13225.29000000	13172.55000000	13142.74000000	13116.92000000	13089.49000000	13090.27000000	13056.81000000	13013.94000000	12959.14000000	12877.58000000	12800.73000000	12718.75000000	12637.55000000	12571.72000000	12531.81000000	12500.80000000	12536.58000000	12627.55000000	12809.65000000	13082.42000000	13455.88000000	13845.90000000	14245.05000000	14575.05000000	14826.79000000	14943.05000000	14903.95000000	14714.43000000	14383.36000000	13933.59000000	13503.50000000	13083.11000000	12747.22000000	12489.43000000	12289.73000000	12182.76000000	12145.24000000	12220.00000000	12384.81000000	12611.49000000	12861.84000000	13134.28000000	13369.24000000	13534.06000000	13652.32000000	13650.80000000	13563.13000000	13401.08000000	13191.65000000	12948.66000000
