30000ms
0ms
50x
785nm
Raman
11/1/2024 9:59:27 PM
1.00000000
0.00000000
Resolution=0&-1
Time1=30000ms:Average1=1:Objective=50x:Laser=785nm: (11/1/2024 9:59:27 PM)
51.06555060	52.34191550	53.61791060	54.89353602	56.16879190	57.44367836	58.71819552	59.99234352	61.26612248	62.53953252	63.81257378	65.08524638	66.35755044	67.62948610	68.90105347	70.17225269	71.44308388	72.71354717	73.98364268	75.25337054	76.52273087	77.79172381	79.06034947	80.32860799	81.59649948	82.86402408	84.13118191	85.39797309	86.66439775	87.93045602	89.19614802	90.46147387	91.72643371	92.99102765	94.25525582	95.51911835	96.78261536	98.04574698	99.30851333	100.57091453	101.83295071	103.09462200	104.35592852	105.61687039	106.87744774	108.13766070	109.39750938	110.65699391	111.91611441	113.17487102	114.43326385	115.69129303	116.94895868	118.20626092	119.46319988	120.71977569	121.97598846	123.23183833	124.48732540	125.74244982	126.99721169	128.25161115	129.50564832	130.75932331	132.01263626	133.26558729	134.51817652	135.77040407	137.02227007	138.27377463	139.52491789	140.77569996	142.02612097	143.27618104	144.52588029	145.77521884	147.02419682	148.27281436	149.52107156	150.76896856	152.01650548	153.26368243	154.51049955	155.75695694	157.00305475	158.24879308	159.49417205	160.73919180	161.98385244	163.22815410	164.47209689	165.71568094	166.95890636	168.20177329	169.44428183	170.68643212	171.92822427	173.16965841	174.41073466	175.65145313	176.89181395	178.13181724	179.37146312	180.61075171	181.84968313	183.08825750	184.32647495	185.56433559	186.80183955	188.03898694	189.27577788	190.51221250	191.74829092	192.98401325	194.21937962	195.45439014	196.68904494	197.92334414	199.15728786	200.39087621	201.62410931	202.85698729	204.08951027	205.32167837	206.55349169	207.78495037	209.01605453	210.24680428	211.47719974	212.70724103	213.93692828	215.16626159	216.39524110	217.62386691	218.85213915	220.08005793	221.30762338	222.53483562	223.76169476	224.98820092	226.21435422	227.44015478	228.66560271	229.89069814	231.11544119	232.33983197	233.56387060	234.78755720	236.01089188	237.23387477	238.45650599	239.67878564	240.90071386	242.12229075	243.34351644	244.56439104	245.78491467	247.00508745	248.22490950	249.44438093	250.66350186	251.88227241	253.10069269	254.31876283	255.53648294	256.75385313	257.97087353	259.18754426	260.40386542	261.61983713	262.83545952	264.05073270	265.26565679	266.48023190	267.69445814	268.90833565	270.12186453	271.33504489	272.54787687	273.76036056	274.97249609	276.18428358	277.39572314	278.60681489	279.81755894	281.02795541	282.23800442	283.44770608	284.65706050	285.86606781	287.07472812	288.28304154	289.49100819	290.69862819	291.90590165	293.11282868	294.31940941	295.52564395	296.73153241	297.93707490	299.14227156	300.34712248	301.55162778	302.75578758	303.95960200	305.16307114	306.36619513	307.56897408	308.77140810	309.97349731	311.17524182	312.37664175	313.57769721	314.77840831	315.97877518	317.17879792	318.37847665	319.57781148	320.77680253	321.97544992	323.17375374	324.37171413	325.56933120	326.76660505	327.96353580	329.16012357	330.35636846	331.55227060	332.74783010	333.94304706	335.13792161	336.33245386	337.52664392	338.72049190	339.91399792	341.10716209	342.29998452	343.49246533	344.68460463	345.87640253	347.06785915	348.25897460	349.44974898	350.64018243	351.83027504	353.02002693	354.20943821	355.39850900	356.58723940	357.77562954	358.96367952	360.15138945	361.33875945	362.52578963	363.71248011	364.89883098	366.08484237	367.27051439	368.45584715	369.64084077	370.82549534	372.00981099	373.19378783	374.37742597	375.56072552	376.74368659	377.92630930	379.10859375	380.29054006	381.47214833	382.65341869	383.83435123	385.01494608	386.19520335	387.37512313	388.55470555	389.73395072	390.91285875	392.09142974	393.26966382	394.44756108	395.62512165	396.80234562	397.97923312	399.15578425	400.33199913	401.50787786	402.68342055	403.85862731	405.03349827	406.20803351	407.38223316	408.55609733	409.72962612	410.90281965	412.07567802	413.24820135	414.42038975	415.59224332	416.76376217	417.93494642	419.10579617	420.27631154	421.44649263	422.61633956	423.78585242	424.95503134	426.12387642	427.29238777	428.46056550	429.62840972	430.79592054	431.96309807	433.12994241	434.29645367	435.46263197	436.62847742	437.79399011	438.95917017	440.12401769	441.28853280	442.45271559	443.61656617	444.78008466	445.94327116	447.10612578	448.26864863	449.43083982	450.59269946	451.75422764	452.91542449	454.07629011	455.23682461	456.39702809	457.55690067	458.71644244	459.87565353	461.03453404	462.19308407	463.35130373	464.50919313	465.66675238	466.82398159	467.98088086	469.13745030	470.29369002	471.44960012	472.60518071	473.76043191	474.91535381	476.06994652	477.22421016	478.37814482	479.53175062	480.68502766	481.83797604	482.99059589	484.14288729	485.29485036	486.44648521	487.59779194	488.74877066	489.89942147	491.04974449	492.19973981	493.34940754	494.49874780	495.64776068	496.79644630	497.94480475	499.09283615	500.24054060	501.38791821	502.53496908	503.68169332	504.82809103	505.97416232	507.11990730	508.26532607	509.41041874	510.55518541	511.69962618	512.84374118	513.98753049	515.13099422	516.27413249	517.41694539	518.55943303	519.70159551	520.84343295	521.98494544	523.12613310	524.26699601	525.40753430	526.54774806	527.68763741	528.82720244	529.96644325	531.10535997	532.24395268	533.38222149	534.52016651	535.65778785	536.79508560	537.93205987	539.06871077	540.20503839	541.34104285	542.47672425	543.61208269	544.74711828	545.88183111	547.01622130	548.15028895	549.28403416	550.41745704	551.55055768	552.68333620	553.81579269	554.94792726	556.07974002	557.21123107	558.34240050	559.47324843	560.60377496	561.73398019	562.86386422	563.99342716	565.12266911	566.25159017	567.38019045	568.50847005	569.63642907	570.76406762	571.89138579	573.01838370	574.14506143	575.27141911	576.39745683	577.52317468	578.64857278	579.77365123	580.89841013	582.02284958	583.14696968	584.27077054	585.39425226	586.51741493	587.64025868	588.76278358	589.88498976	591.00687730	592.12844631	593.24969690	594.37062916	595.49124320	596.61153912	597.73151702	598.85117699	599.97051916	601.08954361	602.20825044	603.32663976	604.44471168	605.56246628	606.67990368	607.79702397	608.91382725	610.03031363	611.14648321	612.26233609	613.37787236	614.49309214	615.60799551	616.72258259	617.83685348	618.95080826	620.06444705	621.17776995	622.29077705	623.40346846	624.51584428	625.62790460	626.73964953	627.85107917	628.96219362	630.07299298	631.18347735	632.29364682	633.40350151	634.51304151	635.62226692	636.73117784	637.83977436	638.94805660	640.05602465	641.16367861	642.27101858	643.37804465	644.48475694	645.59115554	646.69724054	647.80301205	648.90847017	650.01361500	651.11844663	652.22296517	653.32717071	654.43106336	655.53464321	656.63791036	657.74086492	658.84350698	659.94583663	661.04785399	662.14955914	663.25095219	664.35203324	665.45280238	666.55325971	667.65340534	668.75323935	669.85276186	670.95197295	672.05087273	673.14946130	674.24773875	675.34570518	676.44336069	677.54070537	678.63773934	679.73446268	680.83087549	681.92697787	683.02276992	684.11825174	685.21342343	686.30828507	687.40283678	688.49707864	689.59101077	690.68463324	691.77794617	692.87094965	693.96364377	695.05602864	696.14810435	697.23987100	698.33132869	699.42247751	700.51331756	701.60384895	702.69407175	703.78398608	704.87359204	705.96288970	707.05187919	708.14056058	709.22893398	710.31699949	711.40475720	712.49220721	713.57934962	714.66618451	715.75271200	716.83893217	717.92484512	719.01045096	720.09574976	721.18074164	722.26542669	723.34980500	724.43387668	725.51764181	726.60110049	727.68425282	728.76709890	729.84963882	730.93187268	732.01380057	733.09542259	734.17673883	735.25774940	736.33845438	737.41885388	738.49894798	739.57873679	740.65822040	741.73739890	742.81627240	743.89484098	744.97310474	746.05106378	747.12871819	748.20606807	749.28311352	750.35985462	751.43629147	752.51242418	753.58825282	754.66377751	755.73899833	756.81391538	757.88852875	758.96283854	760.03684484	761.11054775	762.18394736	763.25704377	764.32983708	765.40232736	766.47451473	767.54639928	768.61798110	769.68926027	770.76023691	771.83091110	772.90128294	773.97135252	775.04111994	776.11058528	777.17974865	778.24861014	779.31716984	780.38542785	781.45338425	782.52103915	783.58839264	784.65544480	785.72219575	786.78864556	787.85479433	788.92064216	789.98618914	791.05143536	792.11638092	793.18102591	794.24537042	795.30941455	796.37315839	797.43660203	798.49974557	799.56258910	800.62513271	801.68737650	802.74932055	803.81096497	804.87230984	805.93335526	806.99410132	808.05454811	809.11469573	810.17454427	811.23409382	812.29334447	813.35229632	814.41094946	815.46930398	816.52735998	817.58511754	818.64257676	819.69973773	820.75660055	821.81316530	822.86943208	823.92540098	824.98107209	826.03644551	827.09152132	828.14629962	829.20078051	830.25496406	831.30885038	832.36243955	833.41573167	834.46872683	835.52142513	836.57382664	837.62593147	838.67773970	839.72925144	840.78046676	841.83138576	842.88200853	843.93233517	844.98236576	846.03210039	847.08153916	848.13068216	849.17952948	850.22808121	851.27633744	852.32429826	853.37196377	854.41933405	855.46640919	856.51318929	857.55967444	858.60586472	859.65176023	860.69736106	861.74266730	862.78767904	863.83239636	864.87681937	865.92094815	866.96478279	868.00832339	869.05157002	870.09452279	871.13718178	872.17954709	873.22161879	874.26339699	875.30488177	876.34607323	877.38697145	878.42757652	879.46788854	880.50790758	881.54763375	882.58706714	883.62620782	884.66505590	885.70361145	886.74187458	887.77984537	888.81752391	889.85491029	890.89200460	891.92880692	892.96531736	894.00153599	895.03746290	896.07309820	897.10844195	898.14349426	899.17825522	900.21272490	901.24690341	902.28079082	903.31438724	904.34769274	905.38070742	906.41343136	907.44586466	908.47800740	909.50985967	910.54142156	911.57269316	912.60367456	913.63436585	914.66476710	915.69487842	916.72469990	917.75423161	918.78347364	919.81242610	920.84108906	921.86946261	922.89754684	923.92534184	924.95284769	925.98006449	927.00699233	928.03363128	929.05998144	930.08604290	931.11181574	932.13730005	933.16249593	934.18740345	935.21202270	936.23635378	937.26039677	938.28415175	939.30761882	940.33079807	941.35368957	942.37629342	943.39860970	944.42063851	945.44237992	946.46383403	947.48500093	948.50588069	949.52647341	950.54677918	951.56679808	952.58653019	953.60597561	954.62513443	955.64400672	956.66259258	957.68089209	958.69890534	959.71663242	960.73407341	961.75122840	962.76809747	963.78468072	964.80097823	965.81699008	966.83271636	967.84815716	968.86331256	969.87818266	970.89276753	971.90706726	972.92108194	973.93481166	974.94825650	975.96141655	976.97429189	977.98688260	978.99918879	980.01121052	981.02294789	982.03440098	983.04556989	984.05645468	985.06705545	986.07737229	987.08740528	988.09715451	989.10662006	990.11580201	991.12470046	992.13331549	993.14164718	994.14969562	995.15746089	996.16494308	997.17214228	998.17905856	999.18569202	1000.19204274	1001.19811080	1002.20389630	1003.20939930	1004.21461991	1005.21955820	1006.22421426	1007.22858818	1008.23268003	1009.23648991	1010.24001789	1011.24326407	1012.24622853	1013.24891135	1014.25131261	1015.25343240	1016.25527081	1017.25682792	1018.25810381	1019.25909858	1020.25981229	1021.26024504	1022.26039691	1023.26026799	1024.25985836	1025.25916810	1026.25819730	1027.25694603	1028.25541440	1029.25360247	1030.25151034	1031.24913808	1032.24648579	1033.24355354	1034.24034141	1035.23684950	1036.23307789	1037.22902666	1038.22469588	1039.22008566	1040.21519606	1041.21002718	1042.20457909	1043.19885189	1044.19284565	1045.18656045	1046.17999639	1047.17315353	1048.16603198	1049.15863180	1050.15095309	1051.14299592	1052.13476039	1053.12624656	1054.11745453	1055.10838437	1056.09903618	1057.08941003	1058.07950601	1059.06932419	1060.05886467	1061.04812752	1062.03711283	1063.02582068	1064.01425115	1065.00240433	1065.99028029	1066.97787912	1067.96520091	1068.95224573	1069.93901366	1070.92550480	1071.91171921	1072.89765699	1073.88331822	1074.86870298	1075.85381134	1076.83864340	1077.82319923	1078.80747892	1079.79148254	1080.77521019	1081.75866193	1082.74183787	1083.72473806	1084.70736261	1085.68971158	1086.67178507	1087.65358314	1088.63510589	1089.61635340	1090.59732575	1091.57802301	1092.55844527	1093.53859262	1094.51846513	1095.49806288	1096.47738596	1097.45643444	1098.43520842	1099.41370796	1100.39193315	1101.36988408	1102.34756082	1103.32496345	1104.30209206	1105.27894672	1106.25552752	1107.23183454	1108.20786786	1109.18362756	1110.15911371	1111.13432641	1112.10926573	1113.08393175	1114.05832456	1115.03244423	1116.00629084	1116.97986448	1117.95316522	1118.92619315	1119.89894834	1120.87143089	1121.84364086	1122.81557833	1123.78724339	1124.75863613	1125.72975661	1126.70060491	1127.67118113	1128.64148533	1129.61151760	1130.58127803	1131.55076667	1132.51998363	1133.48892898	1134.45760279	1135.42600515	1136.39413614	1137.36199584	1138.32958432	1139.29690167	1140.26394797	1141.23072329	1142.19722772	1143.16346134	1144.12942422	1145.09511644	1146.06053809	1147.02568924	1147.99056997	1148.95518036	1149.91952050	1150.88359045	1151.84739031	1152.81092014	1153.77418003	1154.73717006	1155.69989030	1156.66234084	1157.62452175	1158.58643312	1159.54807502	1160.50944752	1161.47055072	1162.43138468	1163.39194950	1164.35224524	1165.31227198	1166.27202980	1167.23151879	1168.19073902	1169.14969057	1170.10837351	1171.06678793	1172.02493390	1172.98281151	1173.94042083	1174.89776194	1175.85483491	1176.81163983	1177.76817678	1178.72444583	1179.68044706	1180.63618054	1181.59164637	1182.54684461	1183.50177534	1184.45643864	1185.41083459	1186.36496327	1187.31882475	1188.27241912	1189.22574644	1190.17880681	1191.13160029	1192.08412696	1193.03638690	1193.98838019	1194.94010691	1195.89156713	1196.84276094	1197.79368840	1198.74434960	1199.69474461	1200.64487351	1201.59473638	1202.54433330	1203.49366434	1204.44272958	1205.39152910	1206.34006297	1207.28833127	1208.23633408	1209.18407148	1210.13154354	1211.07875034	1212.02569195	1212.97236846	1213.91877994	1214.86492647	1215.81080812	1216.75642497	1217.70177710	1218.64686459	1219.59168750	1220.53624592	1221.48053993	1222.42456960	1223.36833500	1224.31183622	1225.25507333	1226.19804640	1227.14075552	1228.08320076	1229.02538219	1229.96729989	1230.90895395	1231.85034442	1232.79147140	1233.73233495	1234.67293516	1235.61327210	1236.55334584	1237.49315646	1238.43270403	1239.37198864	1240.31101036	1241.24976927	1242.18826543	1243.12649893	1244.06446984	1245.00217824	1245.93962420	1246.87680780	1247.81372912	1248.75038823	1249.68678520	1250.62292011	1251.55879304	1252.49440406	1253.42975325	1254.36484068	1255.29966643	1256.23423057	1257.16853318	1258.10257434	1259.03635411	1259.96987258	1260.90312982	1261.83612590	1262.76886090	1263.70133490	1264.63354797	1265.56550018	1266.49719161	1267.42862233	1268.35979243	1269.29070197	1270.22135102	1271.15173967	1272.08186799	1273.01173605	1273.94134393	1274.87069171	1275.79977945	1276.72860723	1277.65717512	1278.58548321	1279.51353156	1280.44132025	1281.36884935	1282.29611895	1283.22312910	1284.14987989	1285.07637139	1286.00260368	1286.92857683	1287.85429091	1288.77974599	1289.70494216	1290.62987949	1291.55455804	1292.47897790	1293.40313913	1294.32704182	1295.25068603	1296.17407184	1297.09719932	1298.02006855	1298.94267960	1299.86503254	1300.78712746	1301.70896441	1302.63054348	1303.55186473	1304.47292825	1305.39373411	1306.31428237	1307.23457312	1308.15460642	1309.07438235	1309.99390098	1310.91316239	1311.83216665	1312.75091383	1313.66940401	1314.58763725	1315.50561364	1316.42333324	1317.34079613	1318.25800238	1319.17495207	1320.09164526	1321.00808203	1321.92426246	1322.84018661	1323.75585455	1324.67126638	1325.58642214	1326.50132192	1327.41596579	1328.33035382	1329.24448609	1330.15836267	1331.07198362	1331.98534903	1332.89845896	1333.81131349	1334.72391269	1335.63625664	1336.54834539	1337.46017904	1338.37175764	1339.28308128	1340.19415001	1341.10496393	1342.01552309	1342.92582758	1343.83587745	1344.74567279	1345.65521367	1346.56450016	1347.47353232	1348.38231024	1349.29083398	1350.19910362	1351.10711923	1352.01488088	1352.92238864	1353.82964258	1354.73664278	1355.64338930	1356.54988222	1357.45612162	1358.36210755	1359.26784010	1360.17331933	1361.07854532	1361.98351814	1362.88823785	1363.79270454	1364.69691826	1365.60087911	1366.50458713	1367.40804241	1368.31124502	1369.21419502	1370.11689250	1371.01933752	1371.92153014	1372.82347045	1373.72515852	1374.62659440	1375.52777819	1376.42870994	1377.32938972	1378.22981762	1379.12999369	1380.02991802	1380.92959066	1381.82901170	1382.72818119	1383.62709923	1384.52576586	1385.42418117	1386.32234522	1387.22025809	1388.11791984	1389.01533055	1389.91249029	1390.80939912	1391.70605712	1392.60246436	1393.49862091	1394.39452683	1395.29018221	1396.18558710	1397.08074158	1397.97564572	1398.87029959	1399.76470326	1400.65885680	1401.55276028	1402.44641376	1403.33981733	1404.23297105	1405.12587498	1406.01852921	1406.91093379	1407.80308881	1408.69499432	1409.58665040	1410.47805712	1411.36921454	1412.26012275	1413.15078180	1414.04119176	1414.93135272	1415.82126473	1416.71092786	1417.60034219	1418.48950778	1419.37842471	1420.26709304	1421.15551284	1422.04368419	1422.93160714	1423.81928178	1424.70670816	1425.59388636	1426.48081645	1427.36749850	1428.25393257	1429.14011874	1430.02605707	1430.91174764	1431.79719050	1432.68238574	1433.56733342	1434.45203360	1435.33648637	1436.22069177	1437.10464990	1437.98836081	1438.87182457	1439.75504125	1440.63801092	1441.52073365	1442.40320951	1443.28543856	1444.16742088	1445.04915652	1445.93064557	1446.81188809	1447.69288415	1448.57363381	1449.45413715	1450.33439423	1451.21440513	1452.09416990	1452.97368862	1453.85296135	1454.73198817	1455.61076914	1456.48930433	1457.36759381	1458.24563765	1459.12343591	1460.00098866	1460.87829598	1461.75535792	1462.63217455	1463.50874595	1464.38507219	1465.26115332	1466.13698942	1467.01258055	1467.88792679	1468.76302819	1469.63788484	1470.51249679	1471.38686411	1472.26098688	1473.13486515	1474.00849900	1474.88188849	1475.75503369	1476.62793467	1477.50059149	1478.37300423	1479.24517294	1480.11709771	1480.98877858	1481.86021564	1482.73140895	1483.60235858	1484.47306458	1485.34352704	1486.21374601	1487.08372157	1487.95345378	1488.82294271	1489.69218842	1490.56119099	1491.42995047	1492.29846694	1493.16674046	1494.03477110	1494.90255893	1495.77010401	1496.63740640	1497.50446619	1498.37128343	1499.23785818	1500.10419052	1500.97028052	1501.83612823	1502.70173373	1503.56709708	1504.43221835	1505.29709761	1506.16173491	1507.02613033	1507.89028394	1508.75419579	1509.61786597	1510.48129452	1511.34448152	1512.20742704	1513.07013114	1513.93259388	1514.79481534	1515.65679558	1516.51853466	1517.38003265	1518.24128962	1519.10230563	1519.96308075	1520.82361505	1521.68390859	1522.54396143	1523.40377364	1524.26334529	1525.12267645	1525.98176717	1526.84061753	1527.69922759	1528.55759741	1529.41572707	1530.27361662	1531.13126614	1531.98867568	1532.84584532	1533.70277511	1534.55946513	1535.41591544	1536.27212611	1537.12809719	1537.98382876	1538.83932088	1539.69457361	1540.54958703	1541.40436119	1542.25889617	1543.11319202	1543.96724881	1544.82106661	1545.67464548	1546.52798548	1547.38108669	1548.23394916	1549.08657297	1549.93895816	1550.79110483	1551.64301301	1552.49468279	1553.34611422	1554.19730737	1555.04826231	1555.89897909	1556.74945779	1557.59969846	1558.44970118	1559.29946601	1560.14899301	1560.99828224	1561.84733378	1562.69614768	1563.54472401	1564.39306283	1565.24116421	1566.08902822	1566.93665491	1567.78404435	1568.63119661	1569.47811175	1570.32478983	1571.17123092	1572.01743508	1572.86340237	1573.70913287	1574.55462663	1575.39988371	1576.24490419	1577.08968813	1577.93423558	1578.77854662	1579.62262130	1580.46645970	1581.31006187	1582.15342788	1582.99655779	1583.83945167	1584.68210958	1585.52453158	1586.36671774	1587.20866812	1588.05038278	1588.89186179	1589.73310521	1590.57411311	1591.41488554	1592.25542258	1593.09572428	1593.93579071	1594.77562193	1595.61521800	1596.45457900	1597.29370497	1598.13259599	1598.97125211	1599.80967341	1600.64785994	1601.48581177	1602.32352895	1603.16101157	1603.99825966	1604.83527331	1605.67205257	1606.50859750	1607.34490817	1608.18098464	1609.01682697	1609.85243523	1610.68780948	1611.52294979	1612.35785620	1613.19252880	1614.02696763	1614.86117277	1615.69514427	1616.52888220	1617.36238662	1618.19565759	1619.02869518	1619.86149944	1620.69407045	1621.52640826	1622.35851293	1623.19038453	1624.02202312	1624.85342877	1625.68460152	1626.51554146	1627.34624863	1628.17672310	1629.00696494	1629.83697420	1630.66675095	1631.49629525	1632.32560716	1633.15468675	1633.98353407	1634.81214918	1635.64053216	1636.46868306	1637.29660194	1638.12428887	1638.95174390	1639.77896710	1640.60595854	1641.43271826	1642.25924634	1643.08554283	1643.91160781	1644.73744132	1645.56304343	1646.38841420	1647.21355370	1648.03846198	1648.86313911	1649.68758515	1650.51180016	1651.33578420	1652.15953733	1652.98305961	1653.80635111	1654.62941189	1655.45224200	1656.27484151	1657.09721049	1657.91934898	1658.74125706	1659.56293478	1660.38438220	1661.20559940	1662.02658641	1662.84734332	1663.66787018	1664.48816704	1665.30823398	1666.12807104	1666.94767830	1667.76705582	1668.58620365	1669.40512185	1670.22381049	1671.04226963	1671.86049932	1672.67849963	1673.49627062	1674.31381235	1675.13112488	1675.94820828	1676.76506259	1677.58168788	1678.39808422	1679.21425166	1680.03019026	1680.84590009	1681.66138120	1682.47663365	1683.29165751	1684.10645284	1684.92101969	1685.73535812	1686.54946820	1687.36334999	1688.17700355	1688.99042893	1689.80362620	1690.61659541	1691.42933663	1692.24184992	1693.05413533	1693.86619294	1694.67802278	1695.48962494	1696.30099946	1697.11214641	1697.92306585	1698.73375783	1699.54422241	1700.35445967	1701.16446965	1701.97425241	1702.78380802	1703.59313654	1704.40223801	1705.21111252	1706.01976010	1706.82818083	1707.63637477	1708.44434196	1709.25208248	1710.05959638	1710.86688371	1711.67394455	1712.48077895	1713.28738697	1714.09376866	1714.89992409	1715.70585332	1716.51155641	1717.31703341	1718.12228438	1718.92730939	1719.73210849	1720.53668174	1721.34102921	1722.14515094	1722.94904700	1723.75271745	1724.55616235	1725.35938176	1726.16237572	1726.96514432	1727.76768759	1728.57000561	1729.37209842	1730.17396610	1730.97560869	1731.77702626	1732.57821887	1733.37918657	1734.17992942	1734.98044749	1735.78074082	1736.58080948	1737.38065353	1738.18027303	1738.97966803	1739.77883859	1740.57778477	1741.37650664	1742.17500424	1742.97327764	1743.77132689	1744.56915206	1745.36675319	1746.16413036	1746.96128361	1747.75821301	1748.55491862	1749.35140049	1750.14765868	1750.94369324	1751.73950425	1752.53509175	1753.33045580	1754.12559646	1754.92051379	1755.71520785	1756.50967869	1757.30392638	1758.09795097	1758.89175251	1759.68533107	1760.47868671	1761.27181948	1762.06472944	1762.85741664	1763.64988115	1764.44212303	1765.23414232	1766.02593909	1766.81751340	1767.60886530	1768.39999485	1769.19090211	1769.98158714	1770.77204999	1771.56229072	1772.35230939	1773.14210605	1773.93168077	1774.72103360	1775.51016459	1776.29907381	1777.08776132	1777.87622716	1778.66447140	1779.45249409	1780.24029529	1781.02787506	1781.81523346	1782.60237054	1783.38928636	1784.17598098	1784.96245444	1785.74870682	1786.53473817	1787.32054854	1788.10613799	1788.89150659	1789.67665437	1790.46158141	1791.24628776	1792.03077347	1792.81503860	1793.59908322	1794.38290737	1795.16651111	1795.94989450	1796.73305759	1797.51600045	1798.29872313	1799.08122568	1799.86350817	1800.64557064	1801.42741316	1802.20903578	1802.99043856	1803.77162155	1804.55258481	1805.33332840	1806.11385237	1806.89415678	1807.67424169	1808.45410715	1809.23375322	1810.01317995	1810.79238741	1811.57137564	1812.35014470	1813.12869465	1813.90702555	1814.68513745	1815.46303041	1816.24070448	1817.01815972	1817.79539618	1818.57241393	1819.34921301	1820.12579349	1820.90215541	1821.67829884	1822.45422383	1823.22993044	1824.00541872	1824.78068872	1825.55574051	1826.33057414	1827.10518966	1827.87958713	1828.65376661	1829.42772815	1830.20147181	1830.97499764	1831.74830570	1832.52139604	1833.29426873	1834.06692380	1834.83936133	1835.61158136	1836.38358395	1837.15536916	1837.92693704	1838.69828764	1839.46942103	1840.24033726	1841.01103637	1841.78151844	1842.55178351	1843.32183163	1844.09166287	1844.86127727	1845.63067490	1846.39985581	1847.16882005	1847.93756768	1848.70609875	1849.47441332	1850.24251144	1851.01039317	1851.77805857	1852.54550768	1853.31274056	1854.07975727	1854.84655786	1855.61314239	1856.37951091	1857.14566347	1857.91160014	1858.67732096	1859.44282599	1860.20811529	1860.97318890	1861.73804689	1862.50268931	1863.26711621	1864.03132765	1864.79532368	1865.55910435	1866.32266973	1867.08601986	1867.84915480	1868.61207460	1869.37477932	1870.13726901	1870.89954373	1871.66160353	1872.42344847	1873.18507859	1873.94649396	1874.70769462	1875.46868064	1876.22945206	1876.99000894	1877.75035134	1878.51047930	1879.27039288	1880.03009214	1880.78957713	1881.54884790	1882.30790451	1883.06674701	1883.82537546	1884.58378990	1885.34199040	1886.09997701	1886.85774977	1887.61530875	1888.37265400	1889.12978556	1889.88670351	1890.64340788	1891.39989873	1892.15617612	1892.91224010	1893.66809072	1894.42372804	1895.17915211	1895.93436298	1896.68936070	1897.44414534	1898.19871695	1898.95307556	1899.70722125	1900.46115407	1901.21487406	1901.96838128	1902.72167578	1903.47475762	1904.22762685	1904.98028353	1905.73272770	1906.48495942	1907.23697874	1907.98878571	1908.74038040	1909.49176285	1910.24293311	1910.99389124	1911.74463729	1912.49517132	1913.24549337	1913.99560350	1914.74550176	1915.49518821	1916.24466290	1916.99392587	1917.74297719	1918.49181691	1919.24044508	1919.98886174	1920.73706697	1921.48506080	1922.23284328	1922.98041449	1923.72777445	1924.47492324	1925.22186089	1925.96858747	1926.71510302	1927.46140760	1928.20750126	1928.95338405	1929.69905602	1930.44451724	1931.18976774	1931.93480759	1932.67963683	1933.42425551	1934.16866370	1934.91286143	1935.65684877	1936.40062577	1937.14419247	1937.88754893	1938.63069520	1939.37363134	1940.11635739	1940.85887342	1941.60117946	1942.34327557	1943.08516181	1943.82683822	1944.56830487	1945.30956179	1946.05060904	1946.79144668	1947.53207475	1948.27249331	1949.01270241	1949.75270211	1950.49249244	1951.23207347	1951.97144524	1952.71060781	1953.44956124	1954.18830556	1954.92684083	1955.66516711	1956.40328445	1957.14119289	1957.87889250	1958.61638331	1959.35366538	1960.09073877	1960.82760352	1961.56425969	1962.30070733	1963.03694649	1963.77297721	1964.50879956	1965.24441358	1965.97981933	1966.71501685	1967.45000620	1968.18478742	1968.91936058	1969.65372571	1970.38788288	1971.12183213	1971.85557351	1972.58910708	1973.32243288	1974.05555097	1974.78846140	1975.52116421	1976.25365947	1976.98594722	1977.71802750	1978.44990038	1979.18156591	1979.91302413	1980.64427509	1981.37531885	1982.10615545	1982.83678495	1983.56720740	1984.29742285	1985.02743135	1985.75723295	1986.48682770	1987.21621565	1987.94539685	1988.67437136	1989.40313921	1990.13170047	1990.86005519	1991.58820341	1992.31614518	1993.04388056	1993.77140960	1994.49873234	1995.22584884	1995.95275915	1996.67946331	1997.40596138	1998.13225341	1998.85833944	1999.58421954	2000.30989374	2001.03536210	2001.76062467	2002.48568150	2003.21053264	2003.93517814	2004.65961805	2005.38385241	2006.10788129	2006.83170472	2007.55532277	2008.27873547	2009.00194289	2009.72494506	2010.44774204	2011.17033388	2011.89272063	2012.61490234	2013.33687905	2014.05865083	2014.78021771	2015.50157975	2016.22273700	2016.94368951	2017.66443732	2018.38498049	2019.10531906	2019.82545310	2020.54538263	2021.26510772	2021.98462842	2022.70394477	2023.42305682	2024.14196463	2024.86066824	2025.57916770	2026.29746306	2027.01555437	2027.73344169	2028.45112505	2029.16860451	2029.88588012	2030.60295192	2031.31981998	2032.03648432	2032.75294502	2033.46920211
13.34000000	8.80000000	11.32000000	6.20000000	0.70000000	45.58000000	11.90000000	30.40000000	17.92000000	42.74000000	39.94000000	30.32000000	23.50000000	23.56000000	36.58000000	38.80000000	40.80000000	43.02000000	51.18000000	55.92000000	55.96000000	50.74000000	49.28000000	48.58000000	59.68000000	35.30000000	70.18000000	65.22000000	58.04000000	47.24000000	34.86000000	51.20000000	64.28000000	73.22000000	49.36000000	65.80000000	74.30000000	56.20000000	67.54000000	73.54000000	54.20000000	39.80000000	60.60000000	73.74000000	86.92000000	86.50000000	81.30000000	87.94000000	82.68000000	79.60000000	93.78000000	69.70000000	83.26000000	100.60000000	98.28000000	93.68000000	84.80000000	86.56000000	87.88000000	97.82000000	73.64000000	100.32000000	87.24000000	95.34000000	84.92000000	107.12000000	86.94000000	98.64000000	103.46000000	92.58000000	53.20000000	62.80000000	96.54000000	70.38000000	85.54000000	95.24000000	89.42000000	81.66000000	70.66000000	62.14000000	108.86000000	72.56000000	90.00000000	83.76000000	95.38000000	83.52000000	94.10000000	72.44000000	66.44000000	74.52000000	89.70000000	63.38000000	96.82000000	97.90000000	58.30000000	81.42000000	264.58000000	75.70000000	85.06000000	87.68000000	82.80000000	78.14000000	85.16000000	51.46000000	91.20000000	82.78000000	72.76000000	76.80000000	66.42000000	72.08000000	76.76000000	96.04000000	72.14000000	84.34000000	86.92000000	78.96000000	74.82000000	88.86000000	93.44000000	100.36000000	102.84000000	92.16000000	72.26000000	66.46000000	78.52000000	79.50000000	104.98000000	74.12000000	78.64000000	94.82000000	77.62000000	114.88000000	81.88000000	69.64000000	74.88000000	108.54000000	75.68000000	80.12000000	106.18000000	91.62000000	113.08000000	80.58000000	81.80000000	82.90000000	97.50000000	113.46000000	86.88000000	96.50000000	98.10000000	86.44000000	88.12000000	271.54000000	89.88000000	98.42000000	98.52000000	83.20000000	81.58000000	110.30000000	93.10000000	75.92000000	98.66000000	87.52000000	104.82000000	79.44000000	89.06000000	82.30000000	96.64000000	88.18000000	101.48000000	94.92000000	92.62000000	111.38000000	93.24000000	56.60000000	93.64000000	86.58000000	84.92000000	99.92000000	110.78000000	101.98000000	112.78000000	127.16000000	92.64000000	108.34000000	117.28000000	83.90000000	119.38000000	102.44000000	109.30000000	88.20000000	97.74000000	83.86000000	112.20000000	94.56000000	95.44000000	115.46000000	95.76000000	112.46000000	112.24000000	118.68000000	114.52000000	108.04000000	109.22000000	101.26000000	104.70000000	123.14000000	103.64000000	139.86000000	105.92000000	111.62000000	91.80000000	123.68000000	77.88000000	125.90000000	74.64000000	64.34000000	127.10000000	119.34000000	113.46000000	132.54000000	110.58000000	116.02000000	117.72000000	110.28000000	117.74000000	109.58000000	118.70000000	109.38000000	112.90000000	104.90000000	136.60000000	114.16000000	113.36000000	91.12000000	129.44000000	128.94000000	114.88000000	116.40000000	114.52000000	131.28000000	88.08000000	120.04000000	120.48000000	105.38000000	132.24000000	142.56000000	138.04000000	131.08000000	110.28000000	129.72000000	125.36000000	119.64000000	104.70000000	117.86000000	109.18000000	131.40000000	126.46000000	121.00000000	145.90000000	111.44000000	125.82000000	127.38000000	129.40000000	114.10000000	137.38000000	129.54000000	121.70000000	107.78000000	174.68000000	131.58000000	133.88000000	138.50000000	114.86000000	139.22000000	125.74000000	116.54000000	125.58000000	115.38000000	140.42000000	114.88000000	120.16000000	110.26000000	120.52000000	139.16000000	141.18000000	135.38000000	140.62000000	142.80000000	162.82000000	156.28000000	118.30000000	149.70000000	470.82000000	125.98000000	119.92000000	125.54000000	122.42000000	129.68000000	128.46000000	117.32000000	123.48000000	157.30000000	143.58000000	129.86000000	126.14000000	122.78000000	116.92000000	133.34000000	132.54000000	145.02000000	107.46000000	135.02000000	150.00000000	128.56000000	136.56000000	130.62000000	127.28000000	139.28000000	132.74000000	125.22000000	110.14000000	113.96000000	142.18000000	129.40000000	135.18000000	141.26000000	129.18000000	128.34000000	135.26000000	126.18000000	106.72000000	140.36000000	132.68000000	135.86000000	126.66000000	131.98000000	147.16000000	118.18000000	126.40000000	138.68000000	100.80000000	117.88000000	116.64000000	130.42000000	130.42000000	145.46000000	136.94000000	127.28000000	128.38000000	112.60000000	140.08000000	131.76000000	135.28000000	124.72000000	116.92000000	124.00000000	132.12000000	106.68000000	132.58000000	119.26000000	141.52000000	154.90000000	140.28000000	129.00000000	137.80000000	124.04000000	129.84000000	142.20000000	100.60000000	128.32000000	112.30000000	121.78000000	116.82000000	124.00000000	113.86000000	101.72000000	79.58000000	122.32000000	110.34000000	88.10000000	103.74000000	101.24000000	87.78000000	98.32000000	95.64000000	103.10000000	113.68000000	100.36000000	52.96000000	83.86000000	96.02000000	92.28000000	87.84000000	97.34000000	72.86000000	111.00000000	88.22000000	77.58000000	79.96000000	69.96000000	79.40000000	105.34000000	75.82000000	89.96000000	84.34000000	59.66000000	76.84000000	71.84000000	69.94000000	81.74000000	93.48000000	64.84000000	57.36000000	92.10000000	81.54000000	96.26000000	66.42000000	81.20000000	64.54000000	69.50000000	100.76000000	76.84000000	83.82000000	60.30000000	69.48000000	81.72000000	91.22000000	62.54000000	72.90000000	77.42000000	77.16000000	62.16000000	79.04000000	77.36000000	88.64000000	77.74000000	72.60000000	78.84000000	82.70000000	49.96000000	55.78000000	57.56000000	59.72000000	73.34000000	60.22000000	67.10000000	66.22000000	75.12000000	79.20000000	80.18000000	91.74000000	53.22000000	58.42000000	48.40000000	63.82000000	73.74000000	71.18000000	73.26000000	36.74000000	54.90000000	67.50000000	60.30000000	56.54000000	59.22000000	70.02000000	95.36000000	83.20000000	77.02000000	67.20000000	84.68000000	92.70000000	71.72000000	69.52000000	46.92000000	60.74000000	53.60000000	58.50000000	78.78000000	57.20000000	64.06000000	78.84000000	59.00000000	70.52000000	69.72000000	89.50000000	66.90000000	55.52000000	77.82000000	60.72000000	88.36000000	68.32000000	62.54000000	82.54000000	63.02000000	71.98000000	73.74000000	68.44000000	57.14000000	67.50000000	90.66000000	65.00000000	60.30000000	55.74000000	84.04000000	68.88000000	70.18000000	66.22000000	71.12000000	55.02000000	47.24000000	62.18000000	55.18000000	67.34000000	58.02000000	66.30000000	46.36000000	74.50000000	70.26000000	68.26000000	52.98000000	90.34000000	60.42000000	45.44000000	72.22000000	61.56000000	59.00000000	56.80000000	53.24000000	77.34000000	84.34000000	57.50000000	53.16000000	53.66000000	52.32000000	64.58000000	66.28000000	82.38000000	54.88000000	52.66000000	77.76000000	40.16000000	29.30000000	63.76000000	71.84000000	64.62000000	67.74000000	71.46000000	60.90000000	58.24000000	57.96000000	64.50000000	54.38000000	40.52000000	77.88000000	41.24000000	80.08000000	67.84000000	51.12000000	58.32000000	75.32000000	82.20000000	52.42000000	61.12000000	86.16000000	63.16000000	85.10000000	45.46000000	79.56000000	58.12000000	62.68000000	43.48000000	64.46000000	86.08000000	82.20000000	53.46000000	59.52000000	46.54000000	65.68000000	52.58000000	36.60000000	73.80000000	70.80000000	34.32000000	50.58000000	58.50000000	77.58000000	61.70000000	58.66000000	65.68000000	66.96000000	90.50000000	64.84000000	45.40000000	44.58000000	52.42000000	52.90000000	41.10000000	52.52000000	70.26000000	61.22000000	94.78000000	83.52000000	63.02000000	87.48000000	66.30000000	59.42000000	64.22000000	66.74000000	54.30000000	42.34000000	29.00000000	69.46000000	63.26000000	62.46000000	82.62000000	40.44000000	47.34000000	61.50000000	86.98000000	66.82000000	55.90000000	82.98000000	72.60000000	77.62000000	69.88000000	65.38000000	69.40000000	38.58000000	81.26000000	83.10000000	78.18000000	78.76000000	86.34000000	68.82000000	65.50000000	91.32000000	55.00000000	63.38000000	81.28000000	56.00000000	73.60000000	78.14000000	82.74000000	83.50000000	65.82000000	77.30000000	89.78000000	57.08000000	71.26000000	82.40000000	78.60000000	41.96000000	85.46000000	69.40000000	70.06000000	76.26000000	79.02000000	70.06000000	71.36000000	47.62000000	88.48000000	78.10000000	60.72000000	49.98000000	61.40000000	75.94000000	57.38000000	87.68000000	60.00000000	67.62000000	74.20000000	68.04000000	106.94000000	76.44000000	64.94000000	86.92000000	76.26000000	59.94000000	167.70000000	48.08000000	52.28000000	77.66000000	81.86000000	77.60000000	72.28000000	60.96000000	62.06000000	74.08000000	48.92000000	55.32000000	40.92000000	67.46000000	74.14000000	49.34000000	69.68000000	52.80000000	62.14000000	66.42000000	45.36000000	55.94000000	75.68000000	62.56000000	17.90000000	45.96000000	68.42000000	79.42000000	81.02000000	68.42000000	83.92000000	79.20000000	61.00000000	75.96000000	47.18000000	52.18000000	46.46000000	80.26000000	52.40000000	75.44000000	68.42000000	38.70000000	66.64000000	62.72000000	68.34000000	67.30000000	57.34000000	41.52000000	54.14000000	71.20000000	73.14000000	65.42000000	29.84000000	58.02000000	56.70000000	71.66000000	60.64000000	59.66000000	73.38000000	64.60000000	84.30000000	70.82000000	55.58000000	75.08000000	50.44000000	52.04000000	71.18000000	47.74000000	57.88000000	58.36000000	60.80000000	64.74000000	82.94000000	67.34000000	75.92000000	64.16000000	34.76000000	63.98000000	52.94000000	65.80000000	79.22000000	72.42000000	66.54000000	47.56000000	62.78000000	57.24000000	38.50000000	38.66000000	65.12000000	62.28000000	55.66000000	49.82000000	62.88000000	55.30000000	92.60000000	71.64000000	47.90000000	66.88000000	35.34000000	74.10000000	58.42000000	84.40000000	60.88000000	51.16000000	50.88000000	69.44000000	65.44000000	74.34000000	74.64000000	71.70000000	75.02000000	57.88000000	67.58000000	70.26000000	72.22000000	61.56000000	69.72000000	55.64000000	58.50000000	72.00000000	70.54000000	60.16000000	61.26000000	59.72000000	62.06000000	64.74000000	44.32000000	63.20000000	72.54000000	66.22000000	55.16000000	44.40000000	69.40000000	35.98000000	70.38000000	56.40000000	61.60000000	63.58000000	71.36000000	63.66000000	62.26000000	55.06000000	73.00000000	70.80000000	61.12000000	75.46000000	60.64000000	77.42000000	89.70000000	80.42000000	71.74000000	85.26000000	52.22000000	49.80000000	87.24000000	64.94000000	64.18000000	67.02000000	61.34000000	50.24000000	66.62000000	72.46000000	62.38000000	58.18000000	44.14000000	64.84000000	65.16000000	83.96000000	42.42000000	74.54000000	84.34000000	79.80000000	55.52000000	71.04000000	65.90000000	57.34000000	75.40000000	96.80000000	50.12000000	80.46000000	59.06000000	79.28000000	81.60000000	75.88000000	89.04000000	97.16000000	64.36000000	58.76000000	51.08000000	87.08000000	85.24000000	87.58000000	69.60000000	50.26000000	71.04000000	87.00000000	92.62000000	65.24000000	63.26000000	51.14000000	63.40000000	76.54000000	62.72000000	58.14000000	92.12000000	61.98000000	91.80000000	81.18000000	82.64000000	81.04000000	80.54000000	70.98000000	75.68000000	93.82000000	88.76000000	73.48000000	89.26000000	75.86000000	62.02000000	64.32000000	62.60000000	82.14000000	72.02000000	83.90000000	102.34000000	87.04000000	92.26000000	71.12000000	79.98000000	80.84000000	55.48000000	94.34000000	69.74000000	76.46000000	62.86000000	88.78000000	73.18000000	73.12000000	94.78000000	80.74000000	77.08000000	64.66000000	70.94000000	74.18000000	98.62000000	69.94000000	101.54000000	61.54000000	81.24000000	80.74000000	104.04000000	101.86000000	63.72000000	87.12000000	54.18000000	65.68000000	84.56000000	73.14000000	57.58000000	90.70000000	84.16000000	72.36000000	76.94000000	90.72000000	78.84000000	65.68000000	99.68000000	83.38000000	98.84000000	95.80000000	74.82000000	64.14000000	64.08000000	77.04000000	92.28000000	89.00000000	79.96000000	104.84000000	69.88000000	113.12000000	93.80000000	72.86000000	77.62000000	68.90000000	97.88000000	82.24000000	96.16000000	100.16000000	80.06000000	77.88000000	88.32000000	57.54000000	101.88000000	80.44000000	90.82000000	85.06000000	64.92000000	88.50000000	82.52000000	83.40000000	68.42000000	89.80000000	87.30000000	87.28000000	62.46000000	68.66000000	92.32000000	101.20000000	82.66000000	77.96000000	97.62000000	92.20000000	73.26000000	97.18000000	82.98000000	93.52000000	75.96000000	87.24000000	74.60000000	62.90000000	61.74000000	81.76000000	108.02000000	103.30000000	98.30000000	97.42000000	92.54000000	75.00000000	90.72000000	76.38000000	119.56000000	108.76000000	96.16000000	102.00000000	84.22000000	64.36000000	76.90000000	96.68000000	101.44000000	84.24000000	103.68000000	95.36000000	75.28000000	61.22000000	86.56000000	87.76000000	104.14000000	78.04000000	99.76000000	82.38000000	86.32000000	74.80000000	105.32000000	94.06000000	91.86000000	102.28000000	102.46000000	77.86000000	113.50000000	66.62000000	101.32000000	86.88000000	116.50000000	108.36000000	97.10000000	115.80000000	120.90000000	101.46000000	85.46000000	112.24000000	126.10000000	105.12000000	87.68000000	102.60000000	101.88000000	101.34000000	102.06000000	125.38000000	110.50000000	74.94000000	118.38000000	98.54000000	86.22000000	110.52000000	117.34000000	90.76000000	103.86000000	102.88000000	80.52000000	99.94000000	83.20000000	107.70000000	89.70000000	86.74000000	105.98000000	103.96000000	104.72000000	112.26000000	95.66000000	122.16000000	86.60000000	108.38000000	85.96000000	111.24000000	113.18000000	69.60000000	105.06000000	112.68000000	119.38000000	123.68000000	115.78000000	102.40000000	101.40000000	110.22000000	103.10000000	121.12000000	115.52000000	129.14000000	93.12000000	120.10000000	107.62000000	140.02000000	110.92000000	131.98000000	127.24000000	108.98000000	108.54000000	117.16000000	116.72000000	110.12000000	119.14000000	115.74000000	126.94000000	92.84000000	117.14000000	119.76000000	113.20000000	143.14000000	114.02000000	134.00000000	133.92000000	124.18000000	104.44000000	114.00000000	124.48000000	131.12000000	107.32000000	113.70000000	139.40000000	110.18000000	118.80000000	117.22000000	118.72000000	120.30000000	153.74000000	129.66000000	152.34000000	137.00000000	142.02000000	151.84000000	139.78000000	144.08000000	127.46000000	127.24000000	141.50000000	126.38000000	144.60000000	139.48000000	151.80000000	137.48000000	320.02000000	163.58000000	144.50000000	131.30000000	151.36000000	150.90000000	162.16000000	132.68000000	135.16000000	172.42000000	140.86000000	182.96000000	139.12000000	168.06000000	151.82000000	150.70000000	135.86000000	166.60000000	124.08000000	156.16000000	176.86000000	159.00000000	196.28000000	164.02000000	163.70000000	176.06000000	160.34000000	155.36000000	171.80000000	169.94000000	158.98000000	174.20000000	174.98000000	192.36000000	169.28000000	190.70000000	170.48000000	178.56000000	188.36000000	179.16000000	191.90000000	180.90000000	180.80000000	197.90000000	179.12000000	183.06000000	172.46000000	190.62000000	180.18000000	185.86000000	178.82000000	195.62000000	191.32000000	184.98000000	165.90000000	205.02000000	214.64000000	198.96000000	169.16000000	196.66000000	196.90000000	175.70000000	204.26000000	197.78000000	201.96000000	197.78000000	216.14000000	206.48000000	202.46000000	183.90000000	208.32000000	202.86000000	216.02000000	188.86000000	188.46000000	183.22000000	188.80000000	203.42000000	209.34000000	189.60000000	214.22000000	199.84000000	185.58000000	213.44000000	205.70000000	187.50000000	231.02000000	179.72000000	178.50000000	210.24000000	199.58000000	205.50000000	199.64000000	210.98000000	203.40000000	194.46000000	182.18000000	187.44000000	169.08000000	202.62000000	181.24000000	184.44000000	166.50000000	184.68000000	167.16000000	195.22000000	201.36000000	195.56000000	231.94000000	202.96000000	218.00000000	218.88000000	188.32000000	201.68000000	166.16000000	193.62000000	220.40000000	219.88000000	183.26000000	201.78000000	202.32000000	186.22000000	177.46000000	192.02000000	188.90000000	181.36000000	182.42000000	207.64000000	177.44000000	178.38000000	159.60000000	182.66000000	198.86000000	184.14000000	185.24000000	176.64000000	169.92000000	182.08000000	199.24000000	183.16000000	197.18000000	191.66000000	179.02000000	181.62000000	196.52000000	182.22000000	198.54000000	181.94000000	183.54000000	179.76000000	187.68000000	169.00000000	168.42000000	157.84000000	170.44000000	167.24000000	189.12000000	162.68000000	186.34000000	178.26000000	163.94000000	188.88000000	189.50000000	163.82000000	179.54000000	168.90000000	203.12000000	145.38000000	184.38000000	168.78000000	184.36000000	170.80000000	174.72000000	180.52000000	177.76000000	167.92000000	169.34000000	166.94000000	172.00000000	189.48000000	160.04000000	176.40000000	180.72000000	174.20000000	174.90000000	176.46000000	182.38000000	177.44000000	167.02000000	175.22000000	212.44000000	192.36000000	184.70000000	179.24000000	177.46000000	164.44000000	148.24000000	185.98000000	161.74000000	180.44000000	175.58000000	179.02000000	173.56000000	169.56000000	197.20000000	184.26000000	177.44000000	170.12000000	168.14000000	171.38000000	175.84000000	170.98000000	157.16000000	186.42000000	198.70000000	165.82000000	181.66000000	168.02000000	156.34000000	162.98000000	189.36000000	178.64000000	177.84000000	169.62000000	160.50000000	176.56000000	164.00000000	174.12000000	178.36000000	147.66000000	161.78000000	170.48000000	180.32000000	166.52000000	167.16000000	155.38000000	184.76000000	148.96000000	177.04000000	187.24000000	172.64000000	166.94000000	185.66000000	174.30000000	160.64000000	177.70000000	161.88000000	182.30000000	184.92000000	185.44000000	184.56000000	162.64000000	182.02000000	191.92000000	168.64000000	157.92000000	168.38000000	170.66000000	159.74000000	176.54000000	164.42000000	155.64000000	177.60000000	170.82000000	166.34000000	163.86000000	153.54000000	174.34000000	161.92000000	163.20000000	162.46000000	174.84000000	191.36000000	162.46000000	156.10000000	165.50000000	161.36000000	174.42000000	160.48000000	157.84000000	180.86000000	187.24000000	161.08000000	187.00000000	167.18000000	167.32000000	160.20000000	170.26000000	157.66000000	182.54000000	155.40000000	143.86000000	179.14000000	166.20000000	166.02000000	165.38000000	160.66000000	151.34000000	147.74000000	169.52000000	156.66000000	180.94000000	180.88000000	167.70000000	144.80000000	189.22000000	158.46000000	159.52000000	150.06000000	160.42000000	154.22000000	172.42000000	171.86000000	184.04000000	148.52000000	176.16000000	155.42000000	146.20000000	145.70000000	143.36000000	156.86000000	183.12000000	144.68000000	142.44000000	163.88000000	163.40000000	188.30000000	181.16000000	160.12000000	140.78000000	156.38000000	159.08000000	189.02000000	153.38000000	165.04000000	170.64000000	177.44000000	138.90000000	151.20000000	153.42000000	168.98000000	151.34000000	164.86000000	176.12000000	154.98000000	160.58000000	182.48000000	121.24000000	149.74000000	143.98000000	137.20000000	134.50000000	164.48000000	146.42000000	158.10000000	155.08000000	178.26000000	130.72000000	150.62000000	167.02000000	159.22000000	156.20000000	160.90000000	170.22000000	162.76000000	151.38000000	141.82000000	159.46000000	171.50000000	154.82000000	146.48000000	177.40000000	142.76000000	158.38000000	148.42000000	172.58000000	148.64000000	141.52000000	152.74000000	160.72000000	131.26000000	-36.28000000	-1149.38000000	-763.44000000	103.34000000	150.82000000	139.60000000	158.00000000	163.86000000	147.84000000	147.24000000	152.94000000	164.34000000	156.20000000	171.58000000	145.24000000	176.20000000	165.20000000	161.78000000	151.04000000	154.12000000	153.10000000	175.60000000	159.22000000	155.94000000	153.32000000	158.70000000	165.40000000	155.16000000	157.46000000	144.76000000	119.44000000	147.74000000	168.08000000	139.66000000	149.78000000	157.88000000	151.48000000	144.22000000	166.82000000	150.60000000	144.78000000	102.86000000	134.10000000	158.10000000	149.58000000	151.60000000	133.12000000	177.48000000	156.64000000	151.02000000	147.08000000	138.88000000	161.14000000	164.76000000	132.64000000	131.92000000	163.38000000	154.74000000	155.00000000	135.20000000	143.80000000	151.62000000	148.38000000	153.04000000	140.68000000	152.86000000	157.78000000	154.86000000	129.66000000	178.24000000	132.08000000	135.30000000	141.76000000	154.36000000	154.70000000	146.70000000	170.18000000	142.16000000	139.30000000	144.88000000	142.98000000	150.22000000	142.18000000	100.90000000	152.80000000	138.68000000	140.08000000	152.66000000	141.32000000	143.48000000	131.18000000	136.74000000	124.82000000	149.08000000	132.16000000	132.46000000	136.56000000	141.18000000	128.48000000	133.94000000	154.58000000	151.80000000	135.52000000	138.70000000	124.00000000	154.94000000	124.58000000	140.26000000	159.42000000	172.60000000	136.14000000	142.56000000	127.12000000	111.72000000	120.42000000	133.00000000	149.94000000	146.78000000	128.84000000	117.54000000	117.58000000	126.56000000	127.56000000	123.66000000	137.58000000	112.28000000	118.74000000	135.32000000	148.62000000	103.44000000	129.28000000	128.34000000	132.52000000	150.96000000	132.78000000	131.52000000	125.14000000	168.06000000	131.64000000	123.08000000	130.86000000	143.90000000	105.26000000	134.14000000	146.94000000	130.16000000	141.62000000	111.74000000	132.14000000	132.88000000	134.34000000	136.34000000	111.34000000	125.02000000	121.68000000	146.30000000	124.96000000	135.84000000	129.62000000	116.36000000	120.02000000	122.74000000	132.48000000	101.06000000	124.58000000	117.22000000	91.94000000	128.78000000	121.26000000	118.70000000	105.14000000	107.34000000	135.20000000	107.30000000	107.34000000	161.86000000	134.46000000	107.82000000	110.12000000	109.08000000	125.42000000	132.30000000	120.76000000	116.02000000	141.70000000	117.22000000	-294.42000000	123.66000000	116.04000000	117.88000000	109.62000000	120.08000000	152.12000000	112.86000000	115.88000000	125.00000000	133.02000000	128.86000000	107.30000000	121.66000000	109.80000000	114.70000000	112.16000000	130.94000000	126.74000000	119.04000000	135.78000000	121.38000000	128.58000000	125.58000000	103.52000000	107.74000000	131.42000000	124.90000000	111.58000000	117.24000000	98.56000000	0.44000000	100.06000000	133.46000000	114.80000000	100.36000000	114.12000000	129.08000000	104.88000000	134.14000000	123.90000000	102.78000000	94.32000000	111.94000000	109.28000000	115.70000000	120.72000000	113.50000000	114.36000000	140.16000000	119.32000000	93.74000000	112.32000000	109.92000000	102.12000000	136.74000000	108.48000000	123.06000000	120.14000000	126.82000000	104.52000000	99.10000000	86.34000000	98.00000000	100.40000000	133.18000000	113.96000000	116.40000000	114.40000000	115.14000000	103.88000000	88.74000000	97.52000000	112.76000000	122.20000000	117.40000000	106.94000000	84.08000000	109.02000000	85.82000000	102.50000000	101.12000000	102.96000000	99.10000000	108.40000000	95.86000000	106.86000000	112.30000000	95.68000000	110.60000000	108.82000000	126.04000000	107.60000000	120.06000000	96.52000000	112.20000000	112.28000000	106.94000000	95.90000000	115.62000000	102.18000000	115.96000000	140.36000000	112.14000000	120.32000000	91.06000000	111.62000000	101.46000000	91.74000000	98.82000000	114.40000000	95.48000000	135.28000000	80.56000000	138.28000000	82.64000000	113.66000000	118.00000000	75.40000000	98.48000000	100.94000000	109.14000000	95.82000000	69.04000000	106.20000000	-326.38000000	93.88000000	98.76000000	101.16000000	97.50000000	108.50000000	107.32000000	100.10000000	102.80000000	102.80000000	101.16000000	102.20000000	98.62000000	98.66000000	96.72000000	104.86000000	109.44000000	123.90000000	87.08000000	112.84000000	125.44000000	108.46000000	100.44000000	87.86000000	101.44000000	137.70000000	147.28000000	80.44000000	107.64000000	94.80000000	92.40000000	93.24000000	80.88000000	102.96000000	119.48000000	90.62000000	119.14000000	112.84000000	120.62000000	80.94000000	74.36000000	100.14000000	79.72000000	110.14000000	91.08000000	98.36000000	106.02000000	98.76000000	108.64000000	85.30000000	90.48000000	89.80000000	104.16000000	111.76000000	81.46000000	119.84000000	91.38000000	106.68000000	87.72000000	100.12000000	104.20000000	90.90000000	86.60000000	107.88000000	72.98000000	81.22000000	85.94000000	81.02000000	110.12000000	100.26000000	73.62000000	130.18000000	94.12000000	83.72000000	82.46000000	84.46000000	76.54000000	87.14000000	77.38000000	92.70000000	79.28000000	81.80000000	110.62000000	94.32000000	79.94000000	93.12000000	86.26000000	80.82000000	64.00000000	94.88000000	125.84000000	94.10000000	62.32000000	83.78000000	81.90000000	93.72000000	92.40000000	87.70000000	83.00000000	91.48000000	93.02000000	93.56000000	94.96000000	113.90000000	76.60000000	85.16000000	62.20000000	78.60000000	60.14000000	90.84000000	77.54000000	99.60000000	85.74000000	75.86000000	56.76000000	78.44000000	96.46000000	95.46000000	52.44000000	101.96000000	80.30000000	82.44000000	99.56000000	81.76000000	65.66000000	88.78000000	59.18000000	74.46000000	92.38000000	67.88000000	72.76000000	56.60000000	87.84000000	73.18000000	75.98000000	60.82000000	64.30000000	83.94000000	93.94000000	72.30000000	43.76000000	63.86000000	75.26000000	58.88000000	77.10000000	53.82000000	83.28000000	40.64000000	72.22000000	30.82000000	45.32000000	57.76000000	75.12000000	84.22000000	62.56000000	40.58000000	62.66000000	69.56000000	107.12000000	90.56000000	102.76000000	69.82000000	68.14000000	67.20000000	61.46000000	69.22000000	67.36000000	60.50000000	65.12000000	60.12000000	61.92000000	61.48000000	54.36000000	54.68000000	67.06000000	61.96000000	55.26000000	49.44000000	61.20000000	81.54000000	76.40000000	68.32000000	74.34000000	64.60000000	42.32000000	52.38000000	53.32000000	50.98000000	20.92000000	60.80000000	97.06000000	73.30000000	73.18000000	38.80000000	53.62000000	39.74000000	43.62000000	58.42000000	48.76000000	40.62000000	49.96000000	67.52000000	54.86000000	40.70000000	32.00000000	49.54000000	77.70000000	27.94000000
